#
# CMB Power Spectrum
#
# Computed for different values of the electron Thompson
# scattering optical depth: tau_e = {0,0.05,0.1,0.2,0.5}
#
# Based on CAMB output, reformatted for the ISM/IGM Book
# Figure 9.5
#
# l = power spectrum angular multipole moment
# tauXX = Delta_T in uK for tau_e = XX
#
   l  tau0.00   tau0.05   tau0.10   tau0.20   tau0.50
   2  34.26806  34.57745  34.79799  35.08133  35.73653 
   3  33.43950  33.43202  33.57827  33.85705  34.69726 
   4  32.68639  32.37592  32.39290  32.60061  33.57231 
   5  32.14499  31.57626  31.43485  31.51761  32.55611 
   6  31.78522  31.01790  30.70765  30.62434  31.66228 
   7  31.56327  30.65224  30.18377  29.90736  30.88592 
   8  31.43788  30.42203  29.81895  29.35098  30.20844 
   9  31.39172  30.29868  29.57803  28.91591  29.61689 
  10  31.40207  30.25343  29.43552  28.59738  29.10223 
  11  31.45727  30.26252  29.37039  28.37886  28.68571 
  12  31.56200  30.32854  29.37975  28.25580  28.36459 
  13  31.69069  30.42499  29.42924  28.19042  28.09199 
  14  31.83237  30.54046  29.50475  28.16736  27.85803 
  15  31.99531  30.67963  29.61098  28.18936  27.67616 
  16  32.18695  30.84769  29.75214  28.26004  27.55812 
  17  32.40062  31.04046  29.92290  28.37182  27.49764 
  18  32.62208  31.24100  30.10465  28.50316  27.47144 
  19  32.86792  31.46729  30.31452  28.67019  27.49545 
  20  33.11797  31.69700  30.52818  28.84545  27.53906 
  21  33.37214  31.93118  30.74752  29.02878  27.60127 
  22  33.63183  32.17297  30.97322  29.22071  27.68104 
  23  33.89543  32.41759  31.20160  29.41717  27.77301 
  24  34.16285  32.66650  31.43422  29.61908  27.87687 
  25  34.43399  32.92112  31.67175  29.82616  27.99143 
  26  34.70735  33.17680  31.90925  30.03581  28.11227 
  27  34.98571  33.43651  32.15276  30.25012  28.24093 
  28  35.26471  33.69718  32.39599  30.46523  28.37199 
  29  35.54715  33.96174  32.64353  30.68338  28.50667 
  30  35.83295  34.23010  32.89377  30.90453  28.64350 
  31  36.11786  34.49928  33.14363  31.12475  28.77777 
  32  36.40604  34.76924  33.39611  31.34629  28.91211 
  33  36.69741  35.04283  33.65264  31.57024  29.04806 
  34  36.99054  35.31855  33.91018  31.79465  29.18459 
  35  37.28673  35.59635  34.17016  32.02187  29.32201 
  36  37.58191  35.87617  34.43109  32.24748  29.45929 
  37  37.87743  36.15384  34.69150  32.47153  29.59561 
  38  38.17591  36.43624  34.95569  32.69862  29.73483 
  39  38.47726  36.71920  35.22215  32.92719  29.87725 
  40  38.77757  37.00270  35.48803  33.15419  30.01949 
  41  39.07941  37.28807  35.75472  33.38113  30.16405 
  42  39.38020  37.57127  36.02083  33.60506  30.30676 
  43  39.67997  37.85499  36.28774  33.83046  30.44930 
  44  39.97874  38.13791  36.55270  34.05143  30.58856 
  45  40.28151  38.42395  36.82119  34.27681  30.72979 
  46  40.58571  38.71175  37.09178  34.50507  30.87119 
  47  40.89009  38.99872  37.36174  34.73327  31.00952 
  48  41.19345  39.28613  37.63110  34.96141  31.14306 
  49  41.49699  39.57398  37.90119  35.18806  31.27219 
  50  41.80431  39.86477  38.17329  35.42033  31.39984 
  51  42.11057  40.15594  38.44606  35.65249  31.52206 
  52  42.42051  40.44997  38.72079  35.89011  31.64332 
  53  42.72821  40.74187  38.99359  36.12478  31.75689 
  54  43.03371  41.03048  39.26321  36.35657  31.86220 
  55  43.33820  41.32070  39.53353  36.58961  31.96404 
  56  43.64745  41.61250  39.80703  36.82662  32.06712 
  57  43.95794  41.90704  40.08242  37.06481  32.16831 
  58  44.26963  42.20427  40.35963  37.30550  32.27073 
  59  44.58251  42.50059  40.63742  37.54730  32.36974 
  60  44.89432  42.79720  40.91577  37.78756  32.46844 
  61  45.21062  43.09756  41.19709  38.03288  32.56993 
  62  45.52472  43.39470  41.47650  38.27401  32.66803 
  63  45.83667  43.69096  41.75404  38.51363  32.76278 
  64  46.15301  43.99091  42.03451  38.75694  32.86335 
  65  46.46612  44.28770  42.31430  38.99872  32.96362 
  66  46.78247  44.58699  42.59460  39.24156  33.06660 
  67  47.09883  44.88652  42.87657  39.48417  33.17379 
  68  47.41729  45.18850  43.16133  39.73034  33.28814 
  69  47.73782  45.49176  43.44652  39.97874  33.40808 
  70  48.06038  45.79738  43.73442  40.22810  33.53654 
  71  48.38388  46.10315  44.02272  40.47963  33.67046 
  72  48.70832  46.40905  44.31140  40.73205  33.80976 
  73  49.03162  46.71616  44.60045  40.98292  33.95291 
  74  49.35585  47.02234  44.88875  41.23470  34.09838 
  75  49.68098  47.32864  45.17743  41.48735  34.24909 
  76  50.00700  47.63612  45.46757  41.74087  34.40058 
  77  50.33289  47.94372  45.75697  41.99405  34.55575 
  78  50.66064  48.25246  46.04889  42.24926  34.71311 
  79  50.98824  48.56233  46.34005  42.50412  34.87119 
  80  51.31764  48.87331  46.63368  42.76096  35.02999 
  81  51.64785  49.18536  46.92760  43.01860  35.18949 
  82  51.97884  49.49849  47.22288  43.27817  35.35110 
  83  52.31157  49.81265  47.51947  43.53849  35.51056 
  84  52.64504  50.12784  47.81631  43.80069  35.67212 
  85  52.97924  50.44304  48.11445  44.06245  35.83295 
  86  53.31322  50.75924  48.41177  44.32381  35.99166 
  87  53.64979  51.07739  48.71345  44.58924  36.15522 
  88  53.98518  51.39455  49.01224  44.85198  36.31391 
  89  54.32127  51.71363  49.31329  45.11762  36.47465 
  90  54.65894  52.03268  49.61451  45.38282  36.63468 
  91  54.99545  52.35170  49.91493  45.64866  36.79266 
  92  55.33263  52.67067  50.21753  45.91514  36.95132 
  93  55.67136  52.99151  50.52029  46.18225  37.11199 
  94  56.00803  53.31135  50.82224  46.44782  37.26929 
  95  56.34625  53.63208  51.12534  46.71616  37.42727 
  96  56.68333  53.95090  51.42665  46.98085  37.58324 
  97  57.02193  54.27154  51.73007  47.24934  37.74123 
  98  57.36114  54.59304  52.03364  47.51842  37.89987 
  99  57.69922  54.91357  52.33641  47.78493  38.05785 
 100  58.03792  55.23495  52.64124  48.05413  38.21649 
 101  58.37637  55.55628  52.94431  48.32287  38.37577 
 102  58.71797  55.88023  53.25129  48.59424  38.53959 
 103  59.05675  56.20142  53.55558  48.86410  38.70013 
 104  59.39613  56.52345  53.86093  49.13349  38.86258 
 105  59.73525  56.84540  54.16457  49.40344  39.02435 
 106  60.07412  57.16730  54.47018  49.67393  39.18801 
 107  60.41192  57.48739  54.77225  49.94197  39.34972 
 108  60.75031  57.80830  55.07631  50.21155  39.51455 
 109  61.08928  58.12917  55.38050  50.48069  39.67997 
 110  61.42638  58.44998  55.68393  50.75037  39.84595 
 111  61.76407  58.76989  55.98661  51.01862  40.01250 
 112  62.10072  59.08892  56.28854  51.28743  40.17960 
 113  62.43877  59.40875  56.59152  51.55677  40.34972 
 114  62.77499  59.72771  56.89376  51.82470  40.51913 
 115  63.11181  60.04748  57.19615  52.09415  40.69029 
 116  63.44683  60.36472  57.49696  52.36124  40.86074 
 117  63.78323  60.68361  57.79879  52.62984  41.03413 
 118  64.11864  61.00164  58.09991  52.89896  41.20801 
 119  64.45231  61.31802  58.40034  53.16578  41.38116 
 120  64.78580  61.63441  58.70008  53.43314  41.55599 
 121  65.11835  61.94917  58.99746  53.69916  41.72889 
 122  65.44922  62.26235  59.29502  53.96388  41.90107 
 123  65.77917  62.57476  59.59111  54.22822  42.07375 
 124  66.10825  62.88641  59.88656  54.49128  42.24689 
 125  66.43568  63.19652  60.17973  54.75308  42.41933 
 126  66.76152  63.50591  60.47313  55.01455  42.58990 
 127  67.08651  63.81301  60.76430  55.27386  42.76096 
 128  67.40919  64.11864  61.05407  55.53287  42.93134 
 129  67.73109  64.42360  61.34248  55.78978  43.09988 
 130  68.05219  64.72635  61.62954  56.04641  43.26892 
 131  68.37032  65.02846  61.91607  56.30186  43.43616 
 132  68.68843  65.32916  62.20048  56.55617  43.60390 
 133  69.00362  65.62774  62.48360  56.80845  43.76985 
 134  69.31738  65.92420  62.76544  57.05962  43.93404 
 135  69.62973  66.22009  63.04522  57.31056  44.09875 
 136  69.93997  66.51241  63.32298  57.55780  44.26059 
 137  70.24813  66.80419  63.59953  57.80484  44.42297 
 138  70.55353  67.09396  63.87331  58.04998  44.58363 
 139  70.85690  67.38026  64.14515  58.29151  44.74036 
 140  71.15827  67.66535  64.41583  58.53375  44.89878 
 141  71.45698  67.94778  64.68385  58.77244  45.05441 
 142  71.75444  68.22903  64.94998  59.01017  45.21062 
 143  72.04929  68.50839  65.21503  59.24694  45.36518 
 144  72.34086  68.78517  65.47748  59.48109  45.51813 
 145  72.63058  69.05939  65.73736  59.71265  45.66946 
 146  72.91914  69.33253  65.99622  59.94414  45.82248 
 147  73.20314  69.60172  66.25179  60.17225  45.97064 
 148  73.48537  69.86916  66.50488  60.39867  46.11832 
 149  73.76517  70.13487  66.75702  60.62343  46.26554 
 150  74.04121  70.39674  67.00597  60.84489  46.41013 
 151  74.31554  70.65691  67.25251  61.06554  46.55427 
 152  74.58552  70.91333  67.49593  61.28213  46.69582 
 153  74.85386  71.16811  67.73699  61.49797  46.83695 
 154  75.11857  71.41988  67.97646  61.71061  46.97659 
 155  75.38103  71.66938  68.21290  61.92173  47.11369 
 156  75.63927  71.91523  68.44559  62.12890  47.24934 
 157  75.89532  72.15885  68.67678  62.33619  47.38460 
 158  76.14854  72.39959  68.90501  62.53959  47.51736 
 159  76.39830  72.63746  69.13103  62.74073  47.64871 
 160  76.64529  72.87249  69.35344  62.93965  47.77970 
 161  76.88888  73.10540  69.57442  63.13636  47.90825 
 162  77.12976  73.33485  69.79183  63.33088  48.03645 
 163  77.36795  73.56222  70.00786  63.52322  48.16327 
 164  77.60219  73.78550  70.21965  63.71263  48.28768 
 165  77.83380  74.00676  70.43011  63.89992  48.41177 
 166  78.06216  74.22466  70.63710  64.08510  48.53452 
 167  78.28793  74.44058  70.84208  64.26819  48.65593 
 168  78.50987  74.65253  71.04295  64.44765  48.77499 
 169  78.72801  74.86121  71.24113  64.62507  48.89274 
 170  78.94302  75.06664  71.43599  64.79969  49.00918 
 171  79.15428  75.26885  71.62820  64.97076  49.12331 
 172  79.36120  75.46655  71.81644  65.13908  49.23515 
 173  79.56444  75.66109  72.00069  65.30391  49.34369 
 174  79.76466  75.85249  72.18240  65.46602  49.45200 
 175  79.96124  76.04078  72.36090  65.62621  49.55805 
 176  80.15298  76.22467  72.53482  65.78146  49.66186 
 177  80.34115  76.40485  72.70626  65.93406  49.76344 
 178  80.52515  76.58133  72.87386  66.08404  49.86281 
 179  80.70564  76.75350  73.03698  66.22990  49.95998 
 180  80.88263  76.92334  73.19836  66.37469  50.05597 
 181  81.05553  77.08891  73.35530  66.51466  50.14978 
 182  81.22438  77.25089  73.50919  66.65208  50.24042 
 183  81.38857  77.40865  73.65868  66.78548  50.32892 
 184  81.54999  77.56288  73.80515  66.91637  50.41627 
 185  81.70679  77.71358  73.94795  67.04401  50.50148 
 186  81.85780  77.85820  74.08441  67.16621  50.58162 
 187  82.00671  78.00064  74.21995  67.28745  50.66261 
 188  82.15108  78.13962  74.35187  67.40475  50.74052 
 189  82.29095  78.27388  74.47886  67.51815  50.81634 
 190  82.42937  78.40600  74.60496  67.63136  50.89204 
 191  82.56028  78.53216  74.72416  67.73773  50.96273 
 192  82.68857  78.65495  74.84116  67.84247  51.03234 
 193  82.81184  78.77373  74.95332  67.94263  51.09892 
 194  82.93190  78.88916  75.06264  68.04043  51.16444 
 195  83.04758  79.00000  75.16782  68.13442  51.22694 
 196  83.15828  79.10625  75.26885  68.22463  51.28743 
 197  83.26584  79.20922  75.36644  68.31252  51.34589 
 198  83.36846  79.30826  75.46059  68.39664  51.40233 
 199  83.46736  79.40277  75.55064  68.47774  51.45678 
 200  83.56195  79.49403  75.63729  68.55508  51.51019 
 201  83.65226  79.58078  75.71988  68.62944  51.55967 
 202  83.73828  79.66367  75.79842  68.70007  51.60814 
 203  83.82005  79.74208  75.87292  68.76700  51.65366 
 204  83.89636  79.81541  75.94340  68.83022  51.69526 
 205  83.96904  79.88554  76.00921  68.88976  51.73587 
 206  84.03690  79.94998  76.07101  68.94491  51.77258 
 207  84.09994  80.01125  76.12949  68.99710  51.80733 
 208  84.15819  80.06685  76.18267  69.04491  51.83918 
 209  84.21223  80.11866  76.23123  69.08835  51.86714 
 210  84.26090  80.16545  76.27647  69.12886  51.89316 
 211  84.30599  80.20848  76.31710  69.16502  51.91628 
 212  84.34512  80.24650  76.35313  69.19682  51.93554 
 213  84.38068  80.28014  76.38521  69.22572  51.95190 
 214  84.41090  80.30940  76.41335  69.25027  51.96634 
 215  84.43696  80.33430  76.43690  69.27048  51.97788 
 216  84.45827  80.35484  76.45587  69.28709  51.98558 
 217  84.47544  80.37102  76.47157  69.30080  51.99135 
 218  84.48787  80.38284  76.48268  69.31017  51.99423 
 219  84.49556  80.39030  76.48921  69.31595  51.99423 
 220  84.49912  80.39341  76.49249  69.31738  51.99135 
 221  84.49852  80.39278  76.49117  69.31595  51.98558 
 222  84.49260  80.38719  76.48660  69.31089  51.97788 
 223  84.48195  80.37661  76.47614  69.30080  51.96634 
 224  84.46774  80.36293  76.46307  69.28780  51.95287 
 225  84.44880  80.34488  76.44540  69.27121  51.93554 
 226  84.42512  80.32185  76.42316  69.25099  51.91628 
 227  84.39668  80.29446  76.39699  69.22572  51.89412 
 228  84.36409  80.26332  76.36753  69.19827  51.86906 
 229  84.32674  80.22780  76.33348  69.16647  51.84110 
 230  84.28523  80.18728  76.29482  69.13103  51.81023 
 231  84.23835  80.14237  76.25156  69.09052  51.77644 
 232  84.18729  80.09370  76.20499  69.04781  51.73973 
 233  84.13204  80.04061  76.15445  69.00072  51.70010 
 234  84.07140  79.98187  76.09862  68.94926  51.65753 
 235  84.00655  79.91996  76.03880  68.89412  51.61201 
 236  83.93688  79.85299  75.97500  68.83531  51.56258 
 237  83.86239  79.78158  75.90652  68.77209  51.51116 
 238  83.78365  79.70571  75.83469  68.70589  51.45678 
 239  83.70065  79.62663  75.75816  68.63599  51.39941 
 240  83.61160  79.54181  75.67760  68.56092  51.33810 
 241  83.51946  79.45313  75.59299  68.48357  51.27573 
 242  83.42302  79.36057  75.50430  68.40176  51.21035 
 243  83.32166  79.26349  75.41154  68.31691  51.14294 
 244  83.21539  79.16186  75.31467  68.22756  51.07152 
 245  83.10475  79.05567  75.21370  68.13516  50.99706 
 246  82.98975  78.94618  75.10859  68.03896  50.92052 
 247  82.87038  78.83210  74.99934  67.93894  50.84290 
 248  82.74599  78.71340  74.88658  67.83583  50.76120 
 249  82.61840  78.59135  74.77032  67.72961  50.67741 
 250  82.48576  78.46465  74.64918  67.61952  50.59150 
 251  82.34926  78.33454  74.52516  67.50629  50.50446 
 252  82.20766  78.19910  74.39623  67.38843  50.41230 
 253  82.06278  78.06087  74.26507  67.26887  50.32097 
 254  81.91337  77.91855  74.12894  67.14536  50.22549 
 255  81.75941  77.77210  73.98919  67.01791  50.12784 
 256  81.60147  77.62152  73.84646  66.88796  50.02899 
 257  81.43954  77.46741  73.69939  66.75478  49.92795 
 258  81.27361  77.30912  73.54862  66.61832  49.82369 
 259  81.10302  77.14726  73.39482  66.47857  49.71720 
 260  80.92960  76.98247  73.23797  66.33551  49.60947 
 261  80.75147  76.81276  73.07668  66.18988  49.49849 
 262  80.56922  76.63942  72.91159  66.03938  49.38522 
 263  80.38470  76.46371  72.74476  65.88854  49.27169 
 264  80.19539  76.28368  72.57341  65.73355  49.15486 
 265  80.00188  76.09928  72.39751  65.57439  49.03468 
 266  79.80476  75.91179  72.21980  65.41330  48.91421 
 267  79.60339  75.72054  72.03749  65.24799  48.78934 
 268  79.39836  75.52549  71.85193  65.07995  48.66210 
 269  79.18901  75.32662  71.66240  64.90762  48.53246 
 270  78.97658  75.12457  71.47028  64.73407  48.40145 
 271  78.76040  74.91929  71.27482  64.55618  48.26800 
 272  78.54171  74.71078  71.07672  64.37701  48.13419 
 273  78.31922  74.49899  70.87524  64.19424  47.99688 
 274  78.09290  74.28391  70.67107  64.00938  47.85708 
 275  77.86334  74.06619  70.46346  63.82084  47.71582 
 276  77.63118  73.84511  70.25311  63.63097  47.57415 
 277  77.39445  73.61997  70.03928  63.43658  47.42784 
 278  77.15504  73.39278  69.82263  63.24081  47.28107 
 279  76.91294  73.16215  69.60388  63.04205  47.13173 
 280  76.66747  72.92873  69.38155  62.84107  46.98085 
 281  76.41989  72.69319  69.15779  62.63865  46.82948 
 282  76.16758  72.45343  68.92967  62.43156  46.67440 
 283  75.91311  72.21219  68.69935  62.22379  46.51881 
 284  75.65646  71.96735  68.46678  62.01290  46.36162 
 285  75.39629  71.72099  68.23196  61.80049  46.20281 
 286  75.13322  71.47028  67.99412  61.58490  46.04129 
 287  74.86788  71.21797  67.75397  61.36693  45.87810 
 288  74.59960  70.96267  67.51074  61.14736  45.71324 
 289  74.32832  70.70502  67.26589  60.92536  45.54778 
 290  74.05539  70.44501  67.01865  60.70173  45.37951 
 291  73.77940  70.18333  66.76975  60.47562  45.21172 
 292  73.49966  69.91709  66.51616  60.24533  45.03776 
 293  73.21885  69.65056  66.26236  60.01583  44.86647 
 294  72.93559  69.38084  66.00530  59.78378  44.69228 
 295  72.65122  69.11006  65.74876  59.55082  44.51854 
 296  72.36298  68.83676  65.48817  59.31442  44.34185 
 297  72.07358  68.56092  65.22576  59.07707  44.16447 
 298  71.78091  68.28250  64.96075  58.83706  43.98409 
 299  71.48636  68.00294  64.69466  58.59607  43.80411 
 300  71.19059  67.72075  64.42593  58.35238  43.62224 
 301  70.89217  67.43738  64.15606  58.10766  43.43846 
 302  70.59249  67.15207  63.88505  57.86190  43.25506 
 303  70.29082  66.86554  63.61211  57.61423  43.06971 
 304  69.98714  66.57627  63.33719  57.36549  42.88240 
 305  69.68285  66.28650  63.06108  57.11567  42.69543 
 306  69.37579  65.99470  62.78376  56.86387  42.50765 
 307  69.06808  65.70160  62.50440  56.61095  42.31784 
 308  68.75827  65.40719  62.22459  56.35690  42.12838 
 309  68.44779  65.11221  61.94352  56.10258  41.93805 
 310  68.13589  64.81512  61.66036  55.84622  41.74566 
 311  67.82256  64.51666  61.37671  55.58957  41.55358 
 312  67.50851  64.21838  61.09255  55.33173  41.36182 
 313  67.19375  63.91870  60.80707  55.07359  41.16916 
 314  66.87750  63.61761  60.52107  54.81423  40.97560 
 315  66.56050  63.31587  60.23454  54.55365  40.78112 
 316  66.24274  63.01349  59.94664  54.29365  40.58694 
 317  65.92420  62.71045  59.65820  54.03240  40.39183 
 318  65.60488  62.40673  59.36918  53.76988  40.19701 
 319  65.28476  62.10233  59.07961  53.50795  40.00125 
 320  64.96538  61.79806  58.79031  53.24660  39.80703 
 321  64.64441  61.49309  58.50043  52.98302  39.61060 
 322  64.32418  61.18823  58.20996  52.72096  39.41573 
 323  64.00312  60.88268  57.91891  52.45760  39.21989 
 324  63.68202  60.57722  57.62899  52.19483  39.02435 
 325  63.36087  60.27271  57.33847  51.93169  38.82911 
 326  63.03967  59.96666  57.04735  51.66914  38.63418 
 327  62.71842  59.66154  56.75738  51.40623  38.43956 
 328  62.39872  59.35655  56.46769  51.14391  38.24526 
 329  62.07817  59.05167  56.17739  50.88123  38.04997 
 330  61.75840  58.74776  55.88828  50.61917  37.85631 
 331  61.43940  58.44485  55.60036  50.35872  37.66298 
 332  61.12037  58.14120  55.31184  50.09790  37.46999 
 333  60.80296  57.83857  55.02454  49.83774  37.27734 
 334  60.48553  57.53782  54.73756  49.57923  37.08639 
 335  60.16893  57.23635  54.45089  49.32038  36.89444 
 336  59.85399  56.93681  54.16641  49.06221  36.70422 
 337  59.53990  56.63832  53.88228  48.80574  36.51438 
 338  59.22668  56.34004  53.59851  48.54894  36.32492 
 339  58.91604  56.04462  53.31791  48.29493  36.13724 
 340  58.60546  55.74944  53.03772  48.04165  35.94997 
 341  58.29665  55.45539  52.75794  47.78807  35.76171 
 342  57.98965  55.16339  52.47952  47.53735  35.57668 
 343  57.68449  54.87258  52.20345  47.28742  35.39209 
 344  57.38118  54.58480  51.92976  47.04041  35.20937 
 345  57.07889  54.29733  51.65656  46.79316  35.02571 
 346  56.77940  54.01296  51.38580  46.54782  34.84537 
 347  56.48185  53.72988  51.11653  46.30443  34.66410 
 348  56.18719  53.44904  50.84978  46.06191  34.48478 
 349  55.89454  53.17048  50.58458  45.82248  34.30598 
 350  55.60396  52.89423  50.32097  45.58399  34.12917 
 351  55.31727  52.62129  50.06196  45.34975  33.95585 
